   wavelength   Ion       Ex.P     loggf
   3440.61      26.0      0.00     -0.67 
   3440.99      26.0      0.05     -0.96 
   3447.28      26.0      2.20     -1.02 
   3450.33      26.0      2.22     -0.90 
   3451.91      26.0      2.22     -1.00 
   3476.70      26.0      0.12     -1.51 
   3490.57      26.0      0.05     -1.10 
   3497.84      26.0      0.11     -1.55 
   3540.12      26.0      2.87     -0.71 
   3565.38      26.0      0.96     -0.13 
   3608.86      26.0      1.01     -0.10 
   3618.77      26.0      0.99     -0.00 
   3647.84      26.0      0.92     -0.19 
   3689.46      26.0      2.94     -0.17 
   3719.93      26.0      0.00     -0.43 
   3727.62      26.0      0.96     -0.63 
   3742.62      26.0      2.94     -0.81 
   3758.23      26.0      0.96     -0.03 
   3763.79      26.0      0.99     -0.24 
   3765.54      26.0      3.24     +0.48 
   3786.68      26.0      1.01     -2.22 
   3787.88      26.0      1.01     -0.86 
   3805.34      26.0      3.30     +0.31 
   3808.73      26.0      2.56     -1.17 
   3815.84      26.0      1.48     +0.23 
   3820.43      26.0      0.86     +0.12 
   3825.88      26.0      0.91     -0.04 
   3827.82      26.0      1.56     +0.06 
   3840.44      26.0      0.99     -0.51 
   3841.05      26.0      1.61     -0.04 
   3849.97      26.0      1.01     -0.87 
   3856.37      26.0      0.05     -1.29 
   3865.52      26.0      1.01     -0.98 
   3878.02      26.0      0.96     -0.91 
   3895.66      26.0      0.11     -1.67 
   3899.71      26.0      0.09     -1.53 
   3902.95      26.0      1.56     -0.47 
   3920.26      26.0      0.12     -1.75 
   3922.91      26.0      0.05     -1.65 
   3949.95      26.0      2.18     -1.25 
   3977.74      26.0      2.20     -1.12 
   4005.24      26.0      1.56     -0.61 
   4045.81      26.0      1.49     +0.28 
   4058.22      26.0      3.21     -1.18 
   4063.59      26.0      1.56     +0.06 
   4067.98      26.0      3.21     -0.53 
   4070.77      26.0      3.24     -0.87 
   4071.74      26.0      1.61     -0.02 
   4114.44      26.0      2.83     -1.30 
   4132.06      26.0      1.61     -0.68 
   4134.68      26.0      2.83     -0.65 
   4143.87      26.0      1.56     -0.51 
   4147.67      26.0      1.49     -2.10 
   4150.25      26.0      3.43     -1.19 
   4154.50      26.0      2.83     -0.69 
   4156.80      26.0      2.83     -0.81 
   4157.78      26.0      3.42     -0.40 
   4158.79      26.0      3.43     -0.70 
   4174.91      26.0      0.91     -2.97 
   4175.64      26.0      2.85     -0.83 
   4181.76      26.0      2.83     -0.37 
   4182.38      26.0      3.02     -1.18 
   4184.89      26.0      2.83     -0.87 
   4187.04      26.0      2.45     -0.56 
   4187.80      26.0      2.42     -0.55 
   4191.43      26.0      2.47     -0.67 
   4195.33      26.0      3.33     -0.49 
   4199.10      26.0      3.05     +0.16 
   4202.03      26.0      1.49     -0.71 
   4216.18      26.0      0.00     -3.36 
   4217.55      26.0      3.43     -0.48 
   4222.21      26.0      2.45     -0.97 
   4227.43      26.0      3.33     +0.27 
   4233.60      26.0      2.48     -0.60 
   4238.81      26.0      3.40     -0.23 
   4250.12      26.0      2.47     -0.41 
   4250.79      26.0      1.56     -0.71 
   4260.47      26.0      2.40     +0.08 
   4271.15      26.0      2.45     -0.35 
   4271.76      26.0      1.49     -0.16 
   4282.40      26.0      2.18     -0.78 
   4325.76      26.0      1.61     +0.01 
   4352.73      26.0      2.22     -1.29 
   4375.93      26.0      0.00     -3.03 
   4388.41      26.0      3.60     -0.68 
   4404.75      26.0      1.56     -0.14 
   4415.12      26.0      1.61     -0.62 
   4427.31      26.0      0.05     -3.04 
   4430.61      26.0      2.22     -1.66 
   4432.57      26.0      3.57     -1.58 
   4442.34      26.0      2.20     -1.25 
   4443.19      26.0      2.86     -1.04 
   4447.72      26.0      2.22     -1.36 
   4461.65      26.0      0.09     -3.21 
   4466.55      26.0      2.83     -0.60 
   4484.22      26.0      3.60     -0.64 
   4489.74      26.0      0.12     -3.97 
   4494.56      26.0      2.20     -1.14 
   4514.18      26.0      3.05     -1.96 
   4531.15      26.0      1.48     -2.16 
   4547.85      26.0      3.55     -0.82 
   4574.22      26.0      3.21     -2.35 
   4592.65      26.0      1.56     -2.45 
   4595.36      26.0      3.30     -1.76 
   4602.00      26.0      1.61     -3.15 
   4602.94      26.0      1.49     -2.22 
   4607.65      26.0      3.27     -1.33 
   4619.29      26.0      3.60     -1.06 
   4630.12      26.0      2.28     -2.58 
   4637.50      26.0      3.28     -1.29 
   4643.46      26.0      3.65     -1.15 
   4647.43      26.0      2.95     -1.35 
   4661.97      26.0      2.99     -2.50 
   4668.13      26.0      3.27     -1.08 
   4704.95      26.0      3.69     -1.32 
   4733.59      26.0      1.49     -2.99 
   4736.77      26.0      3.21     -0.67 
   4786.81      26.0      3.02     -1.61 
   4787.83      26.0      3.00     -2.62 
   4789.65      26.0      3.55     -0.96 
   4800.65      26.0      4.14     -1.03 
   4807.71      26.0      3.37     -2.15 
   4871.32      26.0      2.87     -0.34 
   4872.14      26.0      2.88     -0.57 
   4875.88      26.0      3.33     -1.90 
   4882.14      26.0      3.42     -1.48 
   4885.43      26.0      3.88     -0.97 
   4890.76      26.0      2.88     -0.38 
   4891.49      26.0      2.85     -0.11 
   4896.44      26.0      3.88     -1.89 
   4903.31      26.0      2.88     -0.89 
   4905.13      26.0      3.93     -1.73 
   4907.73      26.0      3.43     -1.70 
   4910.02      26.0      3.40     -1.28 
   4911.78      26.0      3.93     -1.75 
   4918.99      26.0      2.86     -0.34 
   4920.50      26.0      2.83     +0.07 
   4924.77      26.0      2.28     -2.11 
   4938.81      26.0      2.88     -1.08 
   4939.69      26.0      0.86     -3.34 
   4946.39      26.0      3.37     -1.11 
   4950.11      26.0      3.42     -1.50 
   4966.09      26.0      3.33     -0.79 
   4994.13      26.0      0.92     -3.08 
   5001.86      26.0      3.88     -0.01 
   5002.79      26.0      3.40     -1.46 
   5005.71      26.0      3.88     -0.12 
   5006.12      26.0      2.83     -0.61 
   5014.94      26.0      3.94     -0.18 
   5022.24      26.0      3.98     -0.33 
   5028.13      26.0      3.57     -1.02 
   5039.25      26.0      3.37     -1.52 
   5044.21      26.0      2.85     -2.02 
   5048.44      26.0      3.96     -1.00 
   5049.82      26.0      2.28     -1.35 
   5051.63      26.0      0.92     -2.80 
   5068.77      26.0      2.94     -1.04 
   5079.22      26.0      2.20     -2.07 
   5079.74      26.0      0.99     -3.22 
   5083.34      26.0      0.96     -2.96 
   5123.72      26.0      1.01     -3.07 
   5127.36      26.0      0.92     -3.31 
   5131.47      26.0      2.22     -2.52 
   5133.69      26.0      4.18     +0.36 
   5141.74      26.0      2.42     -2.24 
   5150.84      26.0      0.99     -3.04 
   5151.91      26.0      1.01     -3.32 
   5166.28      26.0      0.00     -4.20 
   5171.60      26.0      1.49     -1.79 
   5191.45      26.0      3.04     -0.55 
   5192.34      26.0      3.00     -0.42 
   5194.94      26.0      1.56     -2.09 
   5198.71      26.0      2.22     -2.13 
   5202.34      26.0      2.18     -1.84 
   5215.18      26.0      3.27     -0.86 
   5216.27      26.0      1.61     -2.15 
   5217.39      26.0      3.21     -1.07 
   5225.53      26.0      0.11     -4.79 
   5232.94      26.0      2.94     -0.06 
   5242.49      26.0      3.63     -0.97 
   5253.46      26.0      3.28     -1.58 
   5263.31      26.0      3.27     -0.87 
   5266.56      26.0      3.00     -0.39 
   5281.79      26.0      3.04     -0.83 
   5283.62      26.0      3.24     -0.52 
   5288.52      26.0      3.69     -1.49 
   5307.36      26.0      1.61     -2.99 
   5322.04      26.0      2.28     -2.80 
   5324.18      26.0      3.21     -0.11 
   5332.90      26.0      1.56     -2.78 
   5339.93      26.0      3.27     -0.63 
   5341.02      26.0      1.61     -1.95 
   5364.87      26.0      4.45     +0.23 
   5365.40      26.0      3.57     -1.02 
   5367.47      26.0      4.42     +0.44 
   5369.96      26.0      4.37     +0.54 
   5371.49      26.0      0.96     -1.64 
   5373.71      26.0      4.47     -0.71 
   5379.57      26.0      3.69     -1.42 
   5383.37      26.0      4.31     +0.65 
   5397.13      26.0      0.92     -1.99 
   5405.77      26.0      0.99     -1.84 
   5410.91      26.0      4.47     +0.40 
   5415.20      26.0      4.39     +0.64 
   5429.70      26.0      0.96     -1.88 
   5434.52      26.0      1.01     -2.12 
   5473.90      26.0      4.15     -0.72 
   5483.10      26.0      4.15     -1.39 
   5493.50      26.0      4.10     -1.48 
   5497.52      26.0      1.01     -2.85 
   5501.47      26.0      0.96     -3.05 
   5506.78      26.0      0.99     -2.80 
   5525.54      26.0      4.23     -1.08 
   5554.90      26.0      4.55     -0.27 
   5563.60      26.0      4.19     -0.75 
   5569.62      26.0      3.42     -0.52 
   5586.76      26.0      3.37     -0.11 
   5618.63      26.0      4.21     -1.25 
   5624.54      26.0      3.42     -0.76 
   5638.26      26.0      4.22     -0.72 
   5662.52      26.0      4.18     -0.41 
   5686.53      26.0      4.55     -0.45 
   5701.54      26.0      2.56     -2.22 
   5705.47      26.0      4.30     -1.35 
   5753.12      26.0      4.26     -0.62 
   5775.08      26.0      4.22     -1.08 
   5816.37      26.0      4.55     -0.60 
   6003.01      26.0      3.88     -1.10 
   6008.56      26.0      3.88     -0.98 
   6056.00      26.0      4.73     -0.32 
   6065.48      26.0      2.61     -1.53 
   6136.61      26.0      2.45     -1.40 
   6137.69      26.0      2.59     -1.40 
   6151.62      26.0      2.18     -3.30 
   6173.34      26.0      2.22     -2.88 
   6191.56      26.0      2.43     -1.42 
   6213.43      26.0      2.22     -2.48 
   6219.28      26.0      2.20     -2.43 
   6230.72      26.0      2.56     -1.28 
   6232.64      26.0      3.65     -1.24 
   6240.65      26.0      2.22     -3.17 
   6246.32      26.0      3.60     -0.77 
   6252.56      26.0      2.40     -1.69 
   6265.13      26.0      2.18     -2.55 
   6297.79      26.0      2.22     -2.74 
   6301.50      26.0      3.65     -0.71 
   6315.81      26.0      4.08     -1.63 
   6322.69      26.0      2.59     -2.43 
   6336.82      26.0      3.69     -0.85 
   6344.15      26.0      2.43     -2.92 
   6355.03      26.0      2.84     -2.29 
   6393.60      26.0      2.43     -1.58 
   6408.02      26.0      3.69     -0.99 
   6411.65      26.0      3.65     -0.59 
   6421.35      26.0      2.28     -2.03 
   6430.85      26.0      2.18     -2.01 
   6481.87      26.0      2.28     -2.98 
   6494.98      26.0      2.40     -1.27 
   6592.91      26.0      2.73     -1.47 
   6593.87      26.0      2.43     -2.42 
   6609.11      26.0      2.56     -2.69 
   6677.99      26.0      2.69     -1.42 
   6750.15      26.0      2.42     -2.62 
   6752.71      26.0      4.64     -1.20 
   6843.66      26.0      4.55     -0.73 
   6855.16      26.0      4.56     -0.49 
   6858.15      26.0      4.61     -0.90 
   6978.85      26.0      2.48     -2.50 
   7495.07      26.0      4.22     -0.10 
   7511.02      26.0      4.18     +0.12 
   7568.90      26.0      4.28     -0.88 
   8220.38      26.0      4.32     +0.30 
   4173.45      26.1      2.58     -2.38
   4178.86      26.1      2.58     -2.51
   4233.16      26.1      2.58     -2.02
   4303.17      26.1      2.70     -2.52
   4385.38      26.1      2.78     -2.64
   4416.82      26.1      2.78     -2.57
   4491.41      26.1      2.86     -2.71
   4508.28      26.1      2.86     -2.42
   4515.34      26.1      2.84     -2.60
   4522.63      26.1      2.84     -2.29
   4549.47      26.1      2.83     -1.92
   4555.89      26.1      2.83     -2.40
   4576.34      26.1      2.84     -2.95
   4583.83      26.1      2.81     -1.94
   4620.52      26.1      2.83     -3.21
   5197.58      26.1      3.23     -2.22
   5234.63      26.1      3.22     -2.18
   5276.00      26.1      3.20     -2.01
   5325.55      26.1      3.22     -3.16
   5414.07      26.1      3.22     -3.58
